 Energia (KeV)            Area (m^2) 
     0.0100000      16.5605
     0.0101617      16.5650
     0.0103261      16.5687
     0.0104931      16.5728
     0.0106628      16.5736
     0.0108353      16.5793    
     0.0110106      16.5818
     0.0111886      16.5793
     0.0113696      16.5756
     0.0115535      16.5710
     0.0117404      16.5654
     0.0119303      16.5629
     0.0121232      16.5615
     0.0123193      16.5628
     0.0125186      16.5736
     0.0127210      16.5870
     0.0129268      16.6022
     0.0131359      16.6225
     0.0133483      16.6417
     0.0135642      16.6574
     0.0137836      16.6721
     0.0140066      16.6865
     0.0142331      16.6997
     0.0144633      16.7098
     0.0146973      16.7166
     0.0149350      16.7214
     0.0151765      16.7235
     0.0154220      16.7220
     0.0156714      16.7190
     0.0159249      16.7125
     0.0161825      16.7038
     0.0164442      16.6943
     0.0167102      16.6810
     0.0169805      16.6686
     0.0172551      16.6514
     0.0175342      16.6299
     0.0178178      16.6076
     0.0181060      16.5876
     0.0183989      16.5673
     0.0186964      16.5507
     0.0189988      16.5378
     0.0193061      16.5445
     0.0196184      16.5617
     0.0199357      16.5825
     0.0202582      16.6101
     0.0205858      16.6442
     0.0209188      16.6844
     0.0212571      16.7248
     0.0216009      16.7665
     0.0219503      16.8091
     0.0223053      16.8499
     0.0226661      16.8879
     0.0230327      16.9215
     0.0234053      16.9417
     0.0237838      16.9468
     0.0241685      16.9490
     0.0245594      16.9488
     0.0249566      16.9452
     0.0253603      16.9377
     0.0257705      16.9281
     0.0261873      16.8912
     0.0266109      16.8874
     0.0270413      16.8659
     0.0274786      16.8556
     0.0279231      16.8449
     0.0283747      16.8389
     0.0288337      16.8337
     0.0293000      16.8378
     0.0297739      16.8551
     0.0302555      16.8812
     0.0307449      16.9117
     0.0312421      16.9468
     0.0317475      16.9864
     0.0322609      17.0157
     0.0327827      17.0356
     0.0333130      17.0449
     0.0338518      17.0457
     0.0343993      17.0423
     0.0349557      17.0373
     0.0355211      17.0337
     0.0360956      17.0307
     0.0366794      17.0292
     0.0372727      17.0273
     0.0378755      17.0247
     0.0384882      17.0236
     0.0391107      17.0232
     0.0397432      17.0234
     0.0403861      17.0217
     0.0410393      17.0182
     0.0417031      17.0121
     0.0423776      17.0079
     0.0430630      17.0059
     0.0437595      17.0103
     0.0444673      17.0194
     0.0451865      17.0309
     0.0459174      17.0419
     0.0466600      17.0446
     0.0474147      17.0441
     0.0481816      17.0397
     0.0489609      17.0297
     0.0497528      17.0158
     0.0505576      17.0031
     0.0513753      16.9907
     0.0522062      16.9781
     0.0530506      16.9658
     0.0539087      16.9529
     0.0547806      16.9407
     0.0556667      16.9281
     0.0565670      16.9177
     0.0574820      16.9085
     0.0584117      16.9024
     0.0593564      16.9005
     0.0603165      16.9054
     0.0612921      16.9247
     0.0622834      16.9440
     0.0632908      16.9627
     0.0643145      16.9827
     0.0653547      17.0043
     0.0664118      17.0288
     0.0674859      17.0571
     0.0685775      17.0825
     0.0696867      17.1055
     0.0708138      17.1238
     0.0719591      17.1422
     0.0731230      17.1371
     0.0743057      17.1333
     0.0755076      17.1365
     0.0767289      17.1458
     0.0779699      17.1598
     0.0792310      17.1764
     0.0805125      17.1962
     0.0818147      17.2201
     0.0831380      17.2269
     0.0844827      17.1874
     0.0858491      17.2408
     0.0872377      17.2844
     0.0886487      17.2860
     0.0900825      17.2867
     0.0915395      17.2879
     0.0930201      17.2900
     0.0945246      17.2931
     0.0960535      17.2974
     0.0976071      17.3032
     0.0991858      17.3109
      0.100790      17.3209
      0.102420      17.3346
      0.104077      17.3482
      0.105760      17.3600
      0.107471      17.3698
      0.109209      17.3726
      0.110975      17.3744
      0.112770      17.3764
      0.114594      17.3784
      0.116448      17.3798
      0.118331      17.3795
      0.120245      17.3785
      0.122190      17.3775
      0.124166      17.3762
      0.126175      17.3751
      0.128215      17.3774
      0.130289      17.3860
      0.132397      17.3900
      0.134538      17.3843
      0.136714      17.3628
      0.138925      17.3429
      0.141172      17.3220
      0.143456      17.2990
      0.145776      17.2628
      0.148134      17.2178
      0.150530      17.1715
      0.152964      17.1231
      0.155439      17.0677
      0.157953      17.0035
      0.160507      16.9153
      0.163103      16.8235
      0.165742      16.7254
      0.168422      16.6178
      0.171146      16.4879
      0.173915      16.3335
      0.176727      16.1732
      0.179586      16.0101
      0.182491      15.8417
      0.185442      15.6695
      0.188442      15.4947
      0.191489      15.3203
      0.194587      15.1486
      0.197734      14.9827
      0.200932      14.8283
      0.204182      14.6857
      0.207485      14.5501
      0.210840      14.4326
      0.214251      14.3297
      0.217716      14.2526
      0.221237      14.1703
      0.224816      14.0902
      0.228452      14.0151
      0.232147      13.9561
      0.235902      13.9061
      0.239717      13.8551
      0.243595      13.8047
      0.247535      13.7594
      0.251538      13.7246
      0.255607      13.6928
      0.259741      13.6614
      0.263942      13.6304
      0.268211      13.6064
      0.272549      13.5883
      0.276957      13.5775
      0.281437      13.5654
      0.285989      13.5467
      0.290615      13.5263
      0.295315      13.5054
      0.300092      13.4852
      0.304945      13.4666
      0.309878      13.4519
      0.314890      13.4403
      0.319983      13.4280
      0.325158      13.4119
      0.330418      13.3963
      0.335762      13.3817
      0.341192      13.3694
      0.346711      13.3626
      0.352319      13.3589
      0.358017      13.3624
      0.363808      13.3579
      0.369692      13.3502
      0.375672      13.3409
      0.381748      13.3310
      0.387922      13.3211
      0.394197      13.3114
      0.400573      13.3106
      0.407052      13.3134
      0.413635      13.3108
      0.420326      13.3035
      0.427124      13.2947
      0.434032      13.2847
      0.441052      13.2753
      0.448186      13.2660
      0.455435      13.2588
      0.462802      13.2507
      0.470287      13.2398
      0.477894      13.2275
      0.485623      13.2140
      0.493478      13.1998
      0.501459      13.1850
      0.509570      13.1702
      0.517812      13.1556
      0.526187      13.1405
      0.534698      13.1245
      0.543346      13.1083
      0.552134      13.0919
      0.561065      13.0759
      0.570139      13.0612
      0.579361      13.0473
      0.588732      13.0322
      0.598254      13.0171
      0.607930      13.0022
      0.617763      12.9880
      0.627755      12.9749
      0.637908      12.9638
      0.648226      12.9578
      0.658711      12.9598
      0.669365      12.9655
      0.680191      12.9648
      0.691193      12.9605
      0.702372      12.9547
      0.713733      12.9476
      0.725277      12.9391
      0.737008      12.9290
      0.748928      12.9189
      0.761042      12.9092
      0.773351      12.9000
      0.785859      12.8919
      0.798570      12.8860
      0.811486      12.8870
      0.824611      12.8866
      0.837949      12.8837
      0.851502      12.8815
      0.865274      12.8811
      0.879269      12.8849
      0.893491      12.9012
      0.907943      12.9147
      0.922628      12.9230
      0.937551      12.9304
      0.952715      12.9380
      0.968124      12.9520
      0.983783      12.9643
      0.999695      12.9749
       1.00194      12.9761
       1.00515      12.9780
       1.00838      12.9801
       1.01161      12.9823
       1.01486      12.9847
       1.01812      12.9876
       1.02138      12.9907
       1.02466      12.9941
       1.02795      12.9976
       1.03125      13.0013
       1.03456      13.0064
       1.03788      13.0121
       1.04121      13.0181
       1.04455      13.0244
       1.04790      13.0309
       1.05126      13.0368
       1.05464      13.0426
       1.05802      13.0486
       1.06142      13.0549
       1.06482      13.0614
       1.06824      13.0666
       1.07167      13.0711
       1.07511      13.0759
       1.07856      13.0810
       1.08202      13.0863
       1.08549      13.0906
       1.08897      13.0945
       1.09247      13.0985
       1.09597      13.1029
       1.09949      13.1074
       1.10302      13.1111
       1.10656      13.1144
       1.11011      13.1179
       1.11367      13.1217
       1.11724      13.1256
       1.12083      13.1288
       1.12443      13.1316
       1.12803      13.1346
       1.13165      13.1378
       1.13529      13.1413
       1.13893      13.1440
       1.14258      13.1464
       1.14625      13.1490
       1.14993      13.1518
       1.15362      13.1548
       1.15732      13.1571
       1.16103      13.1590
       1.16476      13.1611
       1.16850      13.1634
       1.17225      13.1660
       1.17601      13.1678
       1.17978      13.1693
       1.18357      13.1709
       1.18737      13.1727
       1.19118      13.1748
       1.19500      13.1761
       1.19883      13.1771
       1.20268      13.1782
       1.20654      13.1795
       1.21041      13.1810
       1.21430      13.1813
       1.21819      13.1808
       1.22210      13.1804
       1.22602      13.1802
       1.22996      13.1801
       1.23391      13.1787
       1.23786      13.1765
       1.24184      13.1743
       1.24582      13.1722
       1.24982      13.1703
       1.25383      13.1683
       1.25785      13.1664
       1.26189      13.1645
       1.26594      13.1628
       1.27000      13.1612
       1.27408      13.1594
       1.27817      13.1576
       1.28227      13.1558
       1.28638      13.1542
       1.29051      13.1527
       1.29465      13.1512
       1.29881      13.1497
       1.30297      13.1483
       1.30716      13.1471
       1.31135      13.1460
       1.31556      13.1458
       1.31978      13.1463
       1.32401      13.1470
       1.32826      13.1479
       1.33253      13.1490
       1.33680      13.1497
       1.34109      13.1501
       1.34540      13.1506
       1.34971      13.1514
       1.35404      13.1523
       1.35839      13.1524
       1.36275      13.1520
       1.36712      13.1516
       1.37151      13.1515
       1.37591      13.1515
       1.38032      13.1510
       1.38475      13.1502
       1.38920      13.1495
       1.39365      13.1489
       1.39813      13.1485
       1.40261      13.1476
       1.40711      13.1462
       1.41163      13.1449
       1.41616      13.1437
       1.42070      13.1427
       1.42526      13.1402
       1.42984      13.1360
       1.43443      13.1320
       1.43903      13.1280
       1.44365      13.1241
       1.44828      13.1203
       1.45293      13.1166
       1.45759      13.1129
       1.46227      13.1096
       1.46696      13.1065
       1.47167      13.1035
       1.47639      13.1006
       1.48113      13.0978
       1.48588      13.0980
       1.49065      13.1014
       1.49543      13.1051
       1.50023      13.1090
       1.50504      13.1132
       1.50987      13.1177
       1.51472      13.1225
       1.51958      13.1277
       1.52445      13.1332
       1.52935      13.1391
       1.53425      13.1424
       1.53918      13.1428
       1.54412      13.1433
       1.54907      13.1441
       1.55404      13.1451
       1.55903      13.1454
       1.56403      13.1447
       1.56905      13.1443
       1.57409      13.1390
       1.57914      13.1330
       1.58420      13.1272
       1.58929      13.1213
       1.59439      13.1155
       1.59951      13.1103
       1.60464      13.1053
       1.60979      13.1003
       1.61495      13.0953
       1.62014      13.0905
       1.62533      13.0856
       1.63055      13.0807
       1.63578      13.0759
       1.64103      13.0712
       1.64630      13.0674
       1.65158      13.0655
       1.65688      13.0637
       1.66220      13.0620
       1.66753      13.0606
       1.67288      13.0576
       1.67825      13.0513
       1.68364      13.0450
       1.68904      13.0388
       1.69446      13.0327
       1.69990      13.0256
       1.70535      13.0164
       1.71082      13.0072
       1.71631      12.9979
       1.72182      12.9886
       1.72735      12.9801
       1.73289      12.9733
       1.73845      12.9666
       1.74403      12.9599
       1.74963      12.9533
       1.75524      12.9461
       1.76087      12.9376
       1.76652      12.9270
       1.77219      12.9100
       1.77788      12.8929
       1.78358      12.8755
       1.78931      12.8579
       1.79505      12.8419
       1.80081      12.8315
       1.80659      12.8210
       1.81239      12.8104
       1.81820      12.7998
       1.82404      12.7893
       1.82989      12.7790
       1.83576      12.7687
       1.84165      12.7584
       1.84756      12.7480
       1.85349      12.7361
       1.85944      12.7188
       1.86540      12.7014
       1.87139      12.6836
       1.87740      12.6657
       1.88342      12.6477
       1.88946      12.6296
       1.89553      12.6114
       1.90161      12.5929
       1.90771      12.5742
       1.91383      12.5603
       1.91998      12.5509
       1.92614      12.5416
       1.93232      12.5322
       1.93852      12.5229
       1.94474      12.5104
       1.95098      12.4948
       1.95724      12.4791
       1.96352      12.4633
       1.96982      12.4473
       1.97614      12.4278
       1.98248      12.4049
       1.98885      12.3815
       1.99523      12.3579
       2.00163      12.3338
       2.00805      12.3090
       2.01450      12.2832
       2.02096      12.2570
       2.02745      12.2304
       2.03395      12.2033
       2.04048      12.1760
       2.04703      12.1496
       2.05360      12.1212
       2.06019      12.0910
       2.06680      12.0605
       2.07343      12.0276
       2.08008      11.9924
       2.08676      11.9573
       2.09346      11.9196
       2.10017      11.8795
       2.10691      11.8376
       2.11367      11.7923
       2.12046      11.7436
       2.12726      11.6924
       2.13409      11.6367
       2.14094      11.5769
       2.14780      11.5118
       2.15470      11.4356
       2.16161      11.3529
       2.16855      11.2677
       2.17551      11.1681
       2.18249      11.0582
       2.18949      10.9297
       2.19652      10.7689
       2.20357      10.5510
       2.21064      10.1848
       2.21773      9.64222
       2.22485      8.93659
       2.23199      7.98697
       2.23915      6.94392
       2.24633      6.37099
       2.25354      6.31899
       2.26078      6.39263
       2.26803      6.33860
       2.27531      6.40031
       2.28261      6.32273
       2.28993      6.42553
       2.29728      6.41568
       2.30466      6.26325
       2.31205      6.05792
       2.31947      5.71172
       2.32691      5.43640
       2.33438      5.39776
       2.34187      5.52533
       2.34939      5.63026
       2.35692      5.70330
       2.36449      5.72718
       2.37208      5.82911
       2.37969      5.97706
       2.38732      6.01233
       2.39498      6.04270
       2.40267      6.08179
       2.41038      6.13836
       2.41811      6.19208
       2.42587      6.26309
       2.43366      6.31798
       2.44147      6.34305
       2.44930      6.34920
       2.45716      6.36261
       2.46505      6.39513
       2.47296      6.42886
       2.48089      6.44933
       2.48886      6.49266
       2.49684      6.53273
       2.50485      6.56435
       2.51289      6.58199
       2.52096      6.58308
       2.52904      6.57887
       2.53716      6.58926
       2.54530      6.61347
       2.55347      6.64283
       2.56166      6.66896
       2.56989      6.68936
       2.57813      6.70766
       2.58640      6.71995
       2.59470      6.72001
       2.60303      6.71461
       2.61138      6.71539
       2.61976      6.72314
       2.62817      6.72859
       2.63660      6.66285
       2.64506      6.63243
       2.65355      6.64644
       2.66207      6.66761
       2.67061      6.67637
       2.67918      6.66911
       2.68778      6.65739
       2.69640      6.63901
       2.70505      6.61957
       2.71374      6.59268
       2.72244      6.54602
       2.73118      6.46480
       2.73994      6.24774
       2.74874      6.04059
       2.75756      6.13784
       2.76641      6.16233
       2.77528      6.22587
       2.78419      6.28033
       2.79312      6.28881
       2.80209      6.34894
       2.81108      6.39115
       2.82010      6.41152
       2.82915      6.40868
       2.83823      6.41120
       2.84733      6.41315
       2.85647      6.43673
       2.86564      6.46983
       2.87483      6.49569
       2.88406      6.51499
       2.89331      6.53057
       2.90260      6.53890
       2.91191      6.54824
       2.92126      6.56096
       2.93063      6.57418
       2.94004      6.59019
       2.94947      6.60663
       2.95894      6.61718
       2.96843      6.62770
       2.97796      6.63377
       2.98751      6.63912
       2.99710      6.64713
       3.00672      6.65632
       3.01636      6.66452
       3.02604      6.67238
       3.03575      6.67660
       3.04550      6.67827
       3.05527      6.68019
       3.06507      6.68229
       3.07491      6.68503
       3.08478      6.68843
       3.09468      6.68981
       3.10461      6.68882
       3.11457      6.68380
       3.12456      6.67389
       3.13459      6.65888
       3.14465      6.63766
       3.15474      6.60524
       3.16486      6.56012
       3.17502      6.52538
       3.18521      6.50147
       3.19543      6.49854
       3.20568      6.51435
       3.21597      6.52946
       3.22629      6.54420
       3.23664      6.55742
       3.24703      6.56997
       3.25745      6.58013
       3.26790      6.58951
       3.27839      6.59655
       3.28891      6.60326
       3.29946      6.60790
       3.31005      6.61251
       3.32067      6.61182
       3.33133      6.61202
       3.34202      6.61730
       3.35274      6.62129
       3.36350      6.62096
       3.37430      6.62035
       3.38512      6.61917
       3.39599      6.61402
       3.40688      6.60564
       3.41782      6.59279
       3.42878      6.57817
       3.43979      6.53909
       3.45082      6.50059
       3.46190      6.50821
       3.47301      6.52005
       3.48415      6.54330
       3.49533      6.58401
       3.50655      6.56827
       3.51780      6.58814
       3.52909      6.55074
       3.54041      6.57883
       3.55178      6.62236
       3.56317      6.62906
       3.57461      6.63608
       3.58608      6.63728
       3.59759      6.63853
       3.60913      6.63801
       3.62071      6.63717
       3.63233      6.63638
       3.64399      6.63570
       3.65568      6.63688
       3.66741      6.64009
       3.67918      6.64105
       3.69099      6.63753
       3.70283      6.63502
       3.71471      6.63546
       3.72663      6.63576
       3.73859      6.63399
       3.75059      6.63239
       3.76262      6.63086
       3.77470      6.62954
       3.78681      6.62792
       3.79896      6.62647
       3.81115      6.62567
       3.82338      6.62512
       3.83565      6.62562
       3.84796      6.62650
       3.86031      6.62426
       3.87270      6.62153
       3.88512      6.62109
       3.89759      6.62136
       3.91010      6.61707
       3.92265      6.61178
       3.93523      6.61011
       3.94786      6.60943
       3.96053      6.60772
       3.97324      6.60600
       3.98599      6.60370
       3.99878      6.60149
       4.01161      6.59677
       4.02449      6.59193
       4.03740      6.59029
       4.05036      6.58888
       4.06335      6.58404
       4.07639      6.57987
       4.08947      6.58027
       4.10260      6.57949
       4.11576      6.57298
       4.12897      6.56795
       4.14222      6.56622
       4.15551      6.56332
       4.16885      6.55863
       4.18222      6.55657
       4.19564      6.55681
       4.20911      6.55407
       4.22261      6.54993
       4.23617      6.56695
       4.24976      6.58952
       4.26339      6.54269
       4.27708      6.50198
       4.29080      6.50464
       4.30457      6.50478
       4.31838      6.49949
       4.33224      6.49492
       4.34614      6.49105
       4.36009      6.48762
       4.37408      6.48447
       4.38812      6.47693
       4.40220      6.46979
       4.41632      6.46605
       4.43050      6.46083
       4.44471      6.45311
       4.45898      6.44952
       4.47329      6.44853
       4.48764      6.43933
       4.50204      6.42956
       4.51649      6.42301
       4.53098      6.41675
       4.54552      6.41089
       4.56011      6.40478
       4.57474      6.39865
       4.58942      6.39354
       4.60415      6.38809
       4.61892      6.38150
       4.63374      6.37503
       4.64861      6.36868
       4.66353      6.36239
       4.67850      6.35620
       4.69351      6.35008
       4.70857      6.34282
       4.72368      6.33468
       4.73884      6.32835
       4.75404      6.32190
       4.76930      6.31433
       4.78461      6.30776
       4.79996      6.30186
       4.81536      6.29204
       4.83081      6.28361
       4.84632      6.27749
       4.86187      6.26857
       4.87747      6.25908
       4.89312      6.25111
       4.90882      6.24347
       4.92458      6.23611
       4.94038      6.22804
       4.95623      6.21929
       4.97214      6.20944
       4.98809      6.20022
       5.00410      6.19155
       5.02016      6.18399
       5.03627      6.17236
       5.05243      6.15949
       5.06864      6.14978
       5.08491      6.14127
       5.10122      6.13353
       5.11759      6.12490
       5.13401      6.11601
       5.15049      6.10701
       5.16702      6.10124
       5.18360      6.09394
       5.20023      6.08515
       5.21692      6.07613
       5.23366      6.06646
       5.25046      6.05559
       5.26730      6.02401
       5.28421      6.00913
       5.30116      6.00851
       5.31817      6.00717
       5.33524      6.00338
       5.35236      5.99762
       5.36954      5.98971
       5.38677      5.98237
       5.40405      5.97485
       5.42139      5.96576
       5.43879      5.95794
       5.45624      5.94950
       5.47375      5.93922
       5.49132      5.93037
       5.50894      5.92205
       5.52662      5.91410
       5.54435      5.90535
       5.56214      5.89529
       5.57999      5.88577
       5.59790      5.87927
       5.61586      5.86660
       5.63388      5.85592
       5.65196      5.84783
       5.67010      5.83696
       5.68829      5.82719
       5.70655      5.81812
       5.72486      5.80951
       5.74323      5.79798
       5.76166      5.78725
       5.78015      5.77652
       5.79870      5.76448
       5.81731      5.75479
       5.83597      5.74246
       5.85470      5.73064
       5.87349      5.72653
       5.89234      5.71883
       5.91125      5.71552
       5.93021      5.70552
       5.94924      5.66858
       5.96833      5.65561
       5.98749      5.65136
       6.00670      5.64838
       6.02597      5.63967
       6.04531      5.63103
       6.06471      5.62245
       6.08417      5.61393
       6.10370      5.60484
       6.12328      5.59456
       6.14293      5.58432
       6.16265      5.57409
       6.18242      5.56391
       6.20226      5.55350
       6.22216      5.54256
       6.24213      5.53162
       6.26216      5.52070
       6.28226      5.50980
       6.30242      5.49875
       6.32264      5.48736
       6.34293      5.47596
       6.36328      5.46457
       6.38370      5.45318
       6.40419      5.44164
       6.42474      5.42980
       6.44535      5.41793
       6.46604      5.40604
       6.48679      5.39411
       6.50760      5.38204
       6.52849      5.36957
       6.54944      5.35707
       6.57045      5.34452
       6.59154      5.33189
       6.61269      5.31909
       6.63391      5.30595
       6.65520      5.29272
       6.67655      5.27939
       6.69798      5.26595
       6.71947      5.25229
       6.74103      5.23824
       6.76267      5.22404
       6.78437      5.20970
       6.80614      5.19519
       6.82798      5.18042
       6.84989      5.16528
       6.87187      5.14993
       6.89392      5.13437
       6.91605      5.11857
       6.93824      5.10248
       6.96050      5.08596
       6.98284      5.06918
       7.00524      5.05213
       7.02772      5.03477
       7.05028      5.01708
       7.07290      4.99903
       7.09560      4.98066
       7.11837      4.96196
       7.14121      4.94293
       7.16413      4.92355
       7.18712      4.90379
       7.21018      4.88371
       7.23331      4.86329
       7.25653      4.84252
       7.27981      4.82144
       7.30317      4.80007
       7.32661      4.77839
       7.35012      4.75639
       7.37371      4.73408
       7.39737      4.71151
       7.42111      4.68876
       7.44492      4.66574
       7.46881      4.64245
       7.49278      4.61891
       7.51682      4.59515
       7.54094      4.57137
       7.56514      4.54734
       7.58942      4.52307
       7.61377      4.49860
       7.63821      4.47396
       7.66272      4.44934
       7.68731      4.42452
       7.71197      4.39949
       7.73672      4.37425
       7.76155      4.34888
       7.78645      4.32363
       7.81144      4.29816
       7.83651      4.27250
       7.86165      4.24665
       7.88688      4.22068
       7.91219      4.19484
       7.93758      4.16882
       7.96305      4.14261
       7.98861      4.11620
       8.01424      4.08969
       8.03996      4.06337
       8.06576      4.03686
       8.09164      4.01017
       8.11761      3.98329
       8.14365      3.95635
       8.16979      3.92964
       8.19600      3.90276
       8.22231      3.87572
       8.24869      3.84854
       8.27516      3.82131
       8.30172      3.79440
       8.32836      3.76737
       8.35508      3.74023
       8.38189      3.71296
       8.40879      3.68569
       8.43577      3.65880
       8.46284      3.63183
       8.49000      3.60478
       8.51724      3.57765
       8.54458      3.55054
       8.57200      3.52388
       8.59950      3.49716
       8.62710      3.47037
       8.65478      3.44355
       8.68256      3.41678
       8.71042      3.39049
       8.73837      3.36416
       8.76641      3.33780
       8.79454      3.31140
       8.82276      3.28509
       8.85107      3.25926
       8.87948      3.23341
       8.90797      3.20755
       8.93656      3.18168
       8.96523      3.15588
       8.99400      3.13061
       9.02287      3.10534
       9.05182      3.08005
       9.08086      3.05477
       9.11000      3.02957
       9.13924      3.00491
       9.16857      2.98024
       9.19799      2.95559
       9.22750      2.93093
       9.25712      2.90637
       9.28682      2.88236
       9.31662      2.85836
       9.34652      2.83436
       9.37651      2.81039
       9.40660      2.78650
       9.43678      2.76317
       9.46707      2.73984
       9.49745      2.71655
       9.52792      2.69328
       9.55850      2.67010
       9.58917      2.64748
       9.61994      2.62489
       9.65081      2.60232
       9.68178      2.57980
       9.71285      2.55738
       9.74402      2.53548
       9.77528      2.51365
       9.80665      2.49186
       9.83812      2.47011
       9.86969      2.44848
       9.90137      2.42738
       9.93314      2.40636
       9.96501      2.38540
       9.99699      2.36451
       10.0291      2.34373
       10.0613      2.32348
       10.0935      2.30338
       10.1259      2.28332
       10.1584      2.26336
       10.1910      2.24355
       10.2237      2.22429
       10.2565      2.20514
       10.2894      2.18614
       10.3225      2.16724
       10.3556      2.14859
       10.3888      2.13046
       10.4222      2.11247
       10.4556      2.09474
       10.4892      2.07717
       10.5228      2.05994
       10.5566      2.04319
       10.5905      2.02674
       10.6244      2.01062
       10.6585      1.99478
       10.6927      1.97931
       10.7270      1.96438
       10.7615      1.94977
       10.7960      1.93558
       10.8306      1.92177
       10.8654      1.90828
       10.9003      1.89518
       10.9353      1.88237
       10.9703      1.86986
       11.0055      1.85753
       11.0409      1.84534
       11.0763      1.83318
       11.1118      1.82107
       11.1475      1.80890
       11.1833      1.79669
       11.2192      1.78433
       11.2552      1.77140
       11.2913      1.75820
       11.3275      1.74467
       11.3638      1.73075
       11.4003      1.71632
       11.4369      1.70024
       11.4736      1.68355
       11.5104      1.66620
       11.5474      1.64812
       11.5844      1.62937
       11.6216      1.60555
       11.6589      1.58095
       11.6963      1.55566
       11.7338      1.52977
       11.7715      1.50160
       11.8092      1.34333
       11.8471      1.18150
       11.8852      1.01973
       11.9186     0.880446
       11.9188     0.879621
       11.9233     0.516628
       11.9616     0.830844
       12.0000     0.844090
       12.0385     0.857501
       12.0771     0.871079
       12.1158     0.884824
       12.1547     0.898774
       12.1937     0.897973
       12.2329     0.897113
       12.2721     0.896276
       12.3115     0.895460
       12.3510     0.894666
       12.3906     0.890628
       12.4304     0.886536
       12.4703     0.882442
       12.5103     0.878349
       12.5504     0.874256
       12.5907     0.868585
       12.6311     0.862873
       12.6717     0.857141
       12.7123     0.851416
       12.7531     0.845672
       12.7940     0.838936
       12.8351     0.832148
       12.8763     0.825353
       12.9176     0.818549
       12.9590     0.811741
       13.0006     0.804109
       13.0424     0.796423
       14.0397     0.682254
       15.0000     0.600000
       16.0000     0.570454
       17.0000     0.541361
       18.0000     0.512047
       19.0000     0.481833
       20.0000     0.450000
       21.0000     0.416261
       22.0000     0.382239
       23.0000     0.350041
       24.0000     0.321848
       25.0000     0.300000
       26.0000     0.286163
       27.0000     0.278597
       28.0000     0.274880
       29.0000     0.272749
       30.0000     0.270000
       31.0000     0.264919
       32.0000     0.257741
       33.0000     0.249131
       34.0000     0.239693
       35.0000     0.230000
       36.0000     0.220474
       37.0000     0.210986
       38.0000     0.201266
       39.0000     0.191037
       40.0000     0.180000
       41.0000     0.167984
       42.0000     0.155413
       43.0000     0.142847
       44.0000     0.130848
       45.0000     0.120000
       46.0000     0.110740
       47.0000     0.102801
       48.0000    0.0957742
       49.0000    0.0892902
       50.0000    0.0830000
       51.0000    0.0766234
       52.0000    0.0701208
       53.0000    0.0635088
       54.0000    0.0567991
       55.0000    0.0500000
       56.0000    0.0431562
       57.0000    0.0364730
       58.0000    0.0302022
       59.0000    0.0246126
       60.0000    0.0200000
       61.0000    0.0165736
       62.0000    0.0140857
       63.0000    0.0122001
       64.0000    0.0106049
       65.0000   0.00900000
       66.0000   0.00716497
       67.0000   0.00519212
       68.0000   0.00324853
       69.0000   0.00150243
       70.0000  0.000130000
       71.0000  0.000127530
       72.0000  0.000110832
       73.0000  0.000108131
       74.0000  0.0000699096
